Sliced MOF 3 PBS Ar 300 700 nm 400us Delta OD 5 disparos

Labels,0.000 us,50.000 us,100.000 us,150.000 us,200.000 us,250.000 us,300.000 us,
Type,Emission Scan,Emission Scan,Emission Scan,Emission Scan,Emission Scan,Emission Scan,Emission Scan,
Comment,,,,,,,,
Start,300.00,300.00,300.00,300.00,300.00,300.00,300.00,
Stop,700.00,700.00,700.00,700.00,700.00,700.00,700.00,
Step,10.00,10.00,10.00,10.00,10.00,10.00,10.00,
Fixed/Offset,n/a,n/a,n/a,n/a,n/a,n/a,n/a,
Xaxis,Wavelength,Wavelength,Wavelength,Wavelength,Wavelength,Wavelength,Wavelength,
Yaxis,Delta OD,Delta OD,Delta OD,Delta OD,Delta OD,Delta OD,Delta OD,
Scan Corr. by File,False,False,False,False,False,False,False,
Corr. by Ref. Det.,False,False,False,False,False,False,False,
Fixed/Offset Corr. by File,n/a,n/a,n/a,n/a,n/a,n/a,n/a,
Repeats,0,0,0,0,0,0,0,
Dwell Time,0.00,0.00,0.00,0.00,0.00,0.00,0.00,
Lamp,,,,,,,,
Temp,0.00,0.00,0.00,0.00,0.00,0.00,0.00,
Scan Polariser,None,None,None,None,None,None,None,
Scan Slit,0.00,0.00,0.00,0.00,0.00,0.00,0.00,
Fixed/Offset Polariser,n/a,n/a,n/a,n/a,n/a,n/a,n/a,
Fixed/Offset Slit,n/a,n/a,n/a,n/a,n/a,n/a,n/a,
Detector,,,,,,,,

300.00,1.07243063E-3,5.82046108E-4,1.14839862E-3,1.10593135E-3,1.29446492E-3,9.80823068E-4,1.57090498E-3,
310.00,2.01899558E-3,4.57217218E-4,4.96093184E-4,-6.96348725E-4,-1.26866950E-3,-2.88701756E-3,-3.15151690E-3,
320.00,9.95047623E-4,4.98708512E-4,8.24101269E-4,6.12890930E-4,8.59487744E-4,1.13033270E-3,4.68250422E-4,
330.00,1.70262449E-3,1.91206415E-3,1.62085437E-3,1.10584288E-3,1.46281801E-3,1.62047078E-3,4.71633248E-4,
340.00,1.88322482E-3,1.71007181E-3,1.57837092E-3,1.44163461E-3,1.36176462E-3,2.16462038E-4,2.38664681E-4,
350.00,2.15926510E-3,1.40882062E-3,1.68519595E-3,1.60764309E-3,1.36045832E-3,4.70487634E-4,8.34075094E-4,
360.00,1.38268084E-3,1.06407818E-3,1.64551032E-3,9.27612127E-4,4.51103493E-4,6.05542504E-4,5.43185160E-4,
370.00,9.72717768E-4,8.60805623E-4,8.17513152E-4,-2.75731029E-4,-6.67702057E-4,-9.53280251E-4,-1.43403700E-3,
380.00,6.68977620E-4,4.29451320E-4,2.99862091E-4,1.28888641E-4,1.64206183E-4,-6.39209975E-5,4.67573496E-4,
390.00,-1.68630423E-3,-1.31424994E-3,-1.20783586E-3,-7.50164094E-4,-2.63144611E-4,-2.87942297E-4,-2.17697001E-4,
400.00,-7.31074577E-3,-5.68058016E-3,-4.04642895E-3,-3.22625227E-3,-2.45845481E-3,-1.77046203E-3,-1.92710280E-3,
410.00,-2.95971315E-2,-2.31419336E-2,-1.76635720E-2,-1.43336076E-2,-1.10059902E-2,-8.87835678E-3,-7.17459340E-3,
420.00,-1.94856934E-2,-1.46911731E-2,-1.11418292E-2,-8.77925381E-3,-6.85621472E-3,-5.41320909E-3,-4.54615150E-3,
430.00,3.59330792E-3,3.13960435E-3,2.72563798E-3,2.73025292E-3,1.69776159E-3,1.63268228E-3,1.83117844E-3,
440.00,5.34333475E-3,3.68192140E-3,2.77918484E-3,1.74843345E-3,1.89104828E-3,7.58443901E-4,7.28214509E-4,
450.00,4.96234838E-3,3.79198464E-3,2.35300395E-3,1.43777905E-3,1.48330117E-3,6.63629209E-4,3.10617499E-4,
460.00,4.74578049E-3,3.54606216E-3,2.75681983E-3,2.25682231E-3,1.50258990E-3,1.06280914E-3,8.66941176E-4,
470.00,3.64049640E-3,3.15780635E-3,2.42676539E-3,1.86701620E-3,1.28482166E-3,1.14967767E-3,9.42854211E-4,
480.00,3.36537743E-3,3.08779744E-3,2.76579452E-3,1.85762101E-3,1.49250333E-3,1.02611922E-3,6.07168884E-4,
490.00,2.98766373E-3,2.67787068E-3,2.27771280E-3,1.73371797E-3,1.47223286E-3,1.20247784E-3,6.50223403E-4,
500.00,1.81327993E-3,1.65766582E-3,1.82177546E-3,1.51780469E-3,1.20520918E-3,8.43314454E-4,2.57261883E-4,
510.00,1.30797888E-3,5.89660078E-4,6.42771891E-4,8.27678479E-4,4.42145218E-4,3.98406264E-4,1.93712622E-4,
520.00,-1.85348865E-4,6.09319941E-5,3.87836597E-4,8.45084214E-5,-4.95197892E-4,1.21777237E-4,-4.67992737E-4,
530.00,-1.62460365E-5,4.31531487E-4,1.38917909E-4,-2.66112711E-5,2.12580228E-4,4.66034362E-5,1.47486091E-4,
540.00,3.72080220E-4,3.37497506E-4,5.45042800E-4,2.08578800E-4,2.17509121E-4,3.56082863E-4,-3.02926510E-5,
550.00,6.30397873E-4,3.83337319E-4,2.77582585E-4,1.89459985E-4,5.90922253E-4,1.11613845E-4,2.43862611E-4,
560.00,3.97005118E-4,7.76431989E-4,3.39429447E-4,3.01064050E-4,1.76566013E-4,9.28884983E-5,-1.23986800E-4,
570.00,4.65713703E-4,3.34927405E-4,4.85766330E-4,4.47696017E-4,3.77193297E-4,5.02115814E-4,1.10693814E-4,
580.00,7.80163682E-4,6.96819159E-4,3.47649562E-4,8.43356829E-4,4.78555448E-4,3.77167395E-4,1.54419453E-4,
590.00,9.24576831E-4,8.59018299E-4,7.61175703E-4,5.36065141E-4,1.00023812E-3,5.61186462E-4,7.58199603E-4,
600.00,5.35342668E-4,1.16600611E-4,2.19955880E-4,2.31069047E-4,1.33298337E-4,3.34076176E-4,2.05002856E-4,
610.00,4.93872503E-4,1.63441015E-4,2.01192524E-5,5.35174797E-4,4.13928996E-4,5.34249586E-4,3.62649473E-4,
620.00,-1.59205752E-4,7.73132560E-5,2.11147315E-4,5.38053981E-4,5.74672187E-4,2.50426092E-4,-8.46374605E-5,
630.00,2.16739340E-4,1.39717507E-4,-1.05981126E-4,1.34677786E-4,2.57570937E-4,-2.30202480E-4,-1.48601423E-4,
640.00,3.28289141E-4,2.96769605E-4,-2.37790409E-5,-2.79403437E-4,-1.30927889E-4,-7.58761826E-6,2.09130551E-4,
650.00,8.99806502E-4,6.43207517E-4,3.29473871E-4,1.21556834E-4,-4.56404843E-4,-1.40660399E-4,3.10954829E-6,
660.00,-5.78050327E-4,-5.29906072E-4,-5.02334326E-4,-7.08523206E-4,-5.20853093E-4,-6.36599434E-4,-4.42142860E-4,
670.00,6.81773177E-4,6.11003896E-4,4.03116981E-4,1.64229772E-4,-4.84048185E-4,-4.83221142E-4,-9.63461120E-4,
680.00,5.95077290E-4,-4.23626125E-6,2.76323728E-4,-3.88924673E-4,2.32873819E-4,1.06074137E-3,3.81563295E-4,
690.00,1.18548132E-3,1.11679710E-3,1.19843590E-3,1.59133191E-3,1.17419602E-3,1.38110027E-3,9.54745279E-4,
700.00,8.16115760E-4,5.15036052E-4,4.34288697E-4,1.52898705E-4,9.79387900E-4,1.32547913E-3,1.08780514E-3,
