Sliced MOF 2 O2  300 700 nm 10 us Delta OD

Labels,0.000 ns,500.000 ns,1000.000 ns,1500.000 ns,2000.000 ns,2500.000 ns,
Type,Emission Scan,Emission Scan,Emission Scan,Emission Scan,Emission Scan,Emission Scan,
Comment,,,,,,,
Start,300.00,300.00,300.00,300.00,300.00,300.00,
Stop,700.00,700.00,700.00,700.00,700.00,700.00,
Step,10.00,10.00,10.00,10.00,10.00,10.00,
Fixed/Offset,n/a,n/a,n/a,n/a,n/a,n/a,
Xaxis,Wavelength,Wavelength,Wavelength,Wavelength,Wavelength,Wavelength,
Yaxis,Delta OD,Delta OD,Delta OD,Delta OD,Delta OD,Delta OD,
Scan Corr. by File,False,False,False,False,False,False,
Corr. by Ref. Det.,False,False,False,False,False,False,
Fixed/Offset Corr. by File,n/a,n/a,n/a,n/a,n/a,n/a,
Repeats,0,0,0,0,0,0,
Dwell Time,0.00,0.00,0.00,0.00,0.00,0.00,
Lamp,,,,,,,
Temp,0.00,0.00,0.00,0.00,0.00,0.00,
Scan Polariser,None,None,None,None,None,None,
Scan Slit,0.00,0.00,0.00,0.00,0.00,0.00,
Fixed/Offset Polariser,n/a,n/a,n/a,n/a,n/a,n/a,
Fixed/Offset Slit,n/a,n/a,n/a,n/a,n/a,n/a,
Detector,,,,,,,

300.00,1.03461486E-3,3.64263018E-4,3.36982775E-4,2.65326762E-5,1.70235668E-4,1.55914589E-4,
310.00,1.70720543E-3,4.07612562E-4,2.44031282E-4,-2.10302329E-4,4.18086798E-4,3.65372398E-4,
320.00,2.06057611E-3,8.25529045E-4,2.80663691E-4,1.74343295E-4,9.55835276E-5,-5.97913531E-5,
330.00,2.54006125E-3,8.45899340E-4,3.91764072E-4,-2.91766482E-5,-6.38753263E-5,7.68285099E-6,
340.00,2.35087355E-3,9.55094758E-4,5.18687477E-4,4.91819868E-4,2.86482391E-4,9.01061139E-5,
350.00,1.70425489E-3,6.83288439E-4,1.67663718E-4,1.42693636E-4,3.53885698E-4,2.87926377E-4,
360.00,1.34578045E-3,2.15378124E-4,7.30851534E-5,-1.31731475E-4,-3.04576039E-4,7.78314425E-5,
370.00,1.06503477E-3,3.67373694E-4,1.53794434E-4,3.40523635E-4,3.75502306E-4,9.96156887E-5,
380.00,6.61103171E-4,1.25259336E-4,9.50879694E-5,1.52157852E-4,-2.65436097E-6,1.82817341E-4,
390.00,-2.21540965E-3,-6.91447756E-4,-2.19164984E-4,-4.17194897E-5,8.57896375E-5,-4.62041644E-5,
400.00,-8.15844070E-3,-2.44985777E-3,-5.91046934E-4,-6.07378606E-4,3.38282989E-4,5.29002791E-5,
410.00,-2.89162882E-2,-9.08825453E-3,-2.88575119E-3,-1.55944040E-3,-7.99979141E-4,-2.25799275E-4,
420.00,-1.60556324E-2,-4.68709879E-3,-1.58586458E-3,-1.52874214E-3,-1.36051897E-3,-1.26604002E-3,
430.00,6.92816079E-3,2.38654995E-3,9.85101797E-4,2.46919197E-4,1.01610822E-4,7.44163190E-5,
440.00,4.87550488E-3,1.47416361E-3,4.64951328E-4,2.65395007E-4,2.63852795E-4,2.13578605E-4,
450.00,4.53303335E-3,1.42860797E-3,6.35612640E-4,4.59061906E-4,1.46166112E-5,9.62324484E-5,
460.00,4.98364959E-3,1.00564619E-3,4.44155739E-4,7.98445399E-5,9.28689187E-5,-1.17973846E-4,
470.00,4.58466541E-3,1.46431266E-3,4.66201658E-4,4.32970992E-4,2.93793273E-4,3.72425799E-4,
480.00,3.36909411E-3,1.08908501E-3,3.33557691E-4,7.93713843E-5,1.43096404E-4,-7.49913161E-5,
490.00,2.20134738E-3,5.86830312E-4,2.33795741E-4,-1.06283369E-4,1.52526743E-4,-1.44898895E-5,
500.00,1.35832408E-3,2.19615948E-4,-2.16720815E-4,-2.58712214E-4,-1.77470400E-4,-2.83312140E-4,
510.00,1.18111272E-3,5.11796388E-4,-8.72962919E-5,-3.60434751E-5,2.31661070E-5,-2.71763092E-5,
520.00,7.12466135E-4,2.37792527E-4,2.84010515E-4,2.80001579E-4,3.94130766E-4,-5.68017058E-5,
530.00,6.14344084E-4,-2.95654841E-4,-8.40737339E-5,-1.73198830E-4,-3.64070613E-4,-3.51419934E-4,
540.00,1.12297211E-3,2.50215031E-4,5.64924732E-4,6.31868839E-4,3.65352753E-4,4.60835261E-4,
550.00,3.20355030E-4,-4.42531673E-5,-1.53387606E-4,-1.56587310E-4,2.79422402E-5,-4.84129909E-4,
560.00,2.20383634E-4,-3.37149395E-5,-2.33455125E-4,6.66632477E-5,-9.83584614E-5,-2.86431401E-4,
570.00,3.91176582E-4,1.09975117E-5,-1.14138220E-5,1.29766093E-4,-9.29971720E-5,-1.69152598E-4,
580.00,4.07952874E-4,2.57770997E-4,2.01265342E-4,1.33256457E-4,1.35057667E-6,1.85703422E-4,
590.00,3.35779128E-4,2.96911836E-4,1.21349782E-4,-1.88601422E-4,-9.61433543E-5,-8.34087259E-5,
600.00,3.31272866E-4,-4.36231094E-5,-1.77970040E-4,-2.54992017E-4,-1.29873981E-4,-1.93096988E-4,
610.00,5.71995683E-4,4.83826443E-4,2.28002988E-4,7.29087651E-6,7.52160704E-5,-1.70964777E-4,
620.00,-3.16101323E-5,-1.12962727E-4,-2.16634391E-4,-5.01634029E-4,-2.47977761E-4,-8.86486087E-4,
630.00,3.30853043E-4,2.86666793E-4,6.27669579E-5,8.45466202E-5,-2.51713864E-5,1.50579610E-4,
640.00,-2.40575449E-4,1.90517560E-4,2.44634575E-4,6.80330631E-5,-2.66815459E-5,-3.33905627E-4,
650.00,4.56916372E-4,7.88581601E-5,1.53928966E-4,-3.71234753E-4,4.17922411E-6,2.86746392E-4,
660.00,3.25530738E-4,6.13453594E-5,-2.10440470E-4,7.03323924E-4,-2.43384740E-4,-2.04316220E-5,
670.00,1.14769764E-5,6.19729806E-4,3.46021523E-4,-6.50424408E-5,1.74841625E-4,1.98685608E-4,
680.00,9.02632426E-4,-1.61902601E-4,4.01295460E-4,5.02456038E-4,2.41270202E-4,1.23624777E-4,
690.00,-4.24684753E-4,-2.95759062E-4,-4.78906208E-4,-4.80446412E-4,-1.05259300E-3,-9.43159612E-5,
700.00,8.27933371E-4,-5.45133371E-4,2.45104311E-4,1.08424741E-4,1.39085692E-4,-4.50160267E-4,
